ALV-6000/E-WIN Data
Date :	"11/7/2025"
Time :	"1:45:27 PM"
Samplename : 	"NaCl - 0.085 micrometer"
SampMemo(0) : 	""
SampMemo(1) : 	""
SampMemo(2) : 	""
SampMemo(3) : 	""
SampMemo(4) : 	""
SampMemo(5) : 	""
SampMemo(6) : 	""
SampMemo(7) : 	""
SampMemo(8) : 	""
SampMemo(9) : 	""
Temperature [K] :	     292.14646
Viscosity [cp]  :	       1.02677
Refractive Index:	       1.33200
Wavelength [nm] :	     632.80000
Angle [°]       :	     144.99900
Duration [s]    :	        20
Runs            :	         1
Mode            :	"SINGLE AUTO CH0 "
MeanCR0 [kHz]   :	     326.37119
MeanCR1 [kHz]   :	       0.00000

"Correlation"
  1.25000E-004	  5.13449E+000
  2.50000E-004	  6.66584E+000
  3.75000E-004	  6.65929E+000
  5.00000E-004	  6.64079E+000
  6.25000E-004	  6.63023E+000
  7.50000E-004	  6.59926E+000
  8.75000E-004	  6.60964E+000
  1.00000E-003	  6.59979E+000
  1.12500E-003	  6.58659E+000
  1.25000E-003	  6.59089E+000
  1.37500E-003	  6.56501E+000
  1.50000E-003	  6.55940E+000
  1.62500E-003	  6.56273E+000
  1.75000E-003	  6.57021E+000
  1.87500E-003	  6.55084E+000
  2.00000E-003	  6.54864E+000
  2.25000E-003	  6.53874E+000
  2.50000E-003	  6.53308E+000
  2.75000E-003	  6.51360E+000
  3.00000E-003	  6.49837E+000
  3.25000E-003	  6.49724E+000
  3.50000E-003	  6.48031E+000
  3.75000E-003	  6.47894E+000
  4.00000E-003	  6.46458E+000
  4.50000E-003	  6.44563E+000
  5.00000E-003	  6.42821E+000
  5.50000E-003	  6.40670E+000
  6.00000E-003	  6.39309E+000
  6.50000E-003	  6.37626E+000
  7.00000E-003	  6.34683E+000
  7.50000E-003	  6.32355E+000
  8.00000E-003	  6.30742E+000
  9.00000E-003	  6.26910E+000
  1.00000E-002	  6.23418E+000
  1.10000E-002	  6.19346E+000
  1.20000E-002	  6.15280E+000
  1.30000E-002	  6.11816E+000
  1.40000E-002	  6.07891E+000
  1.50000E-002	  6.04553E+000
  1.60000E-002	  6.00497E+000
  1.80000E-002	  5.93566E+000
  2.00000E-002	  5.85811E+000
  2.20000E-002	  5.78887E+000
  2.40000E-002	  5.71566E+000
  2.60000E-002	  5.64596E+000
  2.80000E-002	  5.57507E+000
  3.00000E-002	  5.50442E+000
  3.20000E-002	  5.43870E+000
  3.60000E-002	  5.30522E+000
  4.00000E-002	  5.17932E+000
  4.40000E-002	  5.04774E+000
  4.80000E-002	  4.92695E+000
  5.20000E-002	  4.80576E+000
  5.60000E-002	  4.68597E+000
  6.00000E-002	  4.57631E+000
  6.40000E-002	  4.46363E+000
  7.20000E-002	  4.24939E+000
  8.00000E-002	  4.04311E+000
  8.80000E-002	  3.85007E+000
  9.60000E-002	  3.66396E+000
  1.04000E-001	  3.48935E+000
  1.12000E-001	  3.32120E+000
  1.20000E-001	  3.16073E+000
  1.28000E-001	  3.01117E+000
  1.44000E-001	  2.73007E+000
  1.60000E-001	  2.47415E+000
  1.76000E-001	  2.24182E+000
  1.92000E-001	  2.03209E+000
  2.08000E-001	  1.84191E+000
  2.24000E-001	  1.66831E+000
  2.40000E-001	  1.51182E+000
  2.56000E-001	  1.37344E+000
  2.88000E-001	  1.12772E+000
  3.20000E-001	  9.24456E-001
  3.52000E-001	  7.57634E-001
  3.84000E-001	  6.19483E-001
  4.16000E-001	  5.08116E-001
  4.48000E-001	  4.17304E-001
  4.80000E-001	  3.42559E-001
  5.12000E-001	  2.85094E-001
  5.76000E-001	  1.92358E-001
  6.40000E-001	  1.28345E-001
  7.04000E-001	  8.17356E-002
  7.68000E-001	  4.54245E-002
  8.32000E-001	  2.44097E-002
  8.96000E-001	  1.36626E-002
  9.60000E-001	  7.46789E-003
  1.02400E+000	  4.37352E-003
  1.15200E+000	 -1.97339E-004
  1.28000E+000	 -3.85780E-003
  1.40800E+000	 -2.40803E-003
  1.53600E+000	 -1.63366E-003
  1.66400E+000	  2.23017E-003
  1.79200E+000	  8.71437E-003
  1.92000E+000	  1.11818E-002
  2.01600E+000	  5.18637E-003
  2.27200E+000	 -2.24469E-003
  2.52800E+000	  3.53413E-003
  2.78400E+000	  4.99991E-003
  3.04000E+000	  1.48266E-003
  3.29600E+000	  3.05131E-003
  3.55200E+000	  2.21874E-003
  3.80800E+000	 -6.17861E-003
  4.06400E+000	 -6.77822E-003
  4.57600E+000	 -4.15239E-003
  5.08800E+000	 -7.65298E-003
  5.60000E+000	  6.93648E-003
  6.11200E+000	  9.70357E-004
  6.62400E+000	  1.40413E-003
  7.13600E+000	  2.86806E-003
  7.64800E+000	  1.27912E-002
  8.16000E+000	  2.80327E-003
  9.18400E+000	 -9.72672E-003
  1.02080E+001	 -3.73249E-003
  1.12320E+001	 -1.32426E-002
  1.22560E+001	 -8.76619E-003
  1.32800E+001	 -2.57886E-003
  1.43040E+001	  4.30020E-003
  1.53280E+001	  2.04595E-004
  1.63520E+001	 -5.41040E-004
  1.84000E+001	 -1.44142E-003
  2.04480E+001	 -3.11161E-003
  2.24960E+001	  5.56450E-004
  2.45440E+001	 -4.49124E-003
  2.65920E+001	  4.14230E-003
  2.86400E+001	 -6.96573E-004
  3.06880E+001	  5.87664E-005
  3.27360E+001	  1.76590E-003
  3.68320E+001	  1.65091E-003
  4.09280E+001	  6.28987E-004
  4.50240E+001	 -2.57773E-003
  4.91200E+001	 -1.37247E-003
  5.32160E+001	 -3.58777E-003
  5.73120E+001	 -1.14677E-003
  6.14080E+001	 -8.00660E-004
  6.55040E+001	  1.48631E-003
  7.36960E+001	  2.41077E-004
  8.18880E+001	 -1.93460E-003
  9.00800E+001	  3.91720E-003
  9.82720E+001	  1.30843E-003
  1.06464E+002	 -1.67333E-003
  1.14656E+002	 -2.78882E-003
  1.22848E+002	 -1.20716E-003
  1.31040E+002	 -5.70472E-004
  1.47424E+002	  8.17061E-004
  1.63808E+002	  4.54157E-004
  1.80192E+002	 -1.90021E-003
  1.96576E+002	  6.13815E-004
  2.12960E+002	 -1.70428E-003
  2.29344E+002	 -3.40539E-005
  2.45728E+002	  1.02290E-003
  2.62112E+002	 -2.43776E-006
  2.94880E+002	  8.96225E-004
  3.27648E+002	  9.56178E-004
  3.60416E+002	  6.23667E-004
  3.93184E+002	  1.22952E-003
  4.25952E+002	 -2.46059E-003
  4.58720E+002	 -1.14961E-003
  4.91488E+002	  5.12042E-004
  5.24256E+002	 -9.86229E-004
  5.89792E+002	  1.77566E-004
  6.55328E+002	  1.51022E-004
  7.20864E+002	  2.99769E-004
  7.86400E+002	  5.67305E-004
  8.51936E+002	 -4.96038E-004
  9.17472E+002	 -4.07948E-004
  9.83008E+002	  4.88154E-004
  1.04854E+003	 -3.64292E-004
  1.17962E+003	  4.46956E-004
  1.31069E+003	  1.43591E-004
  1.44176E+003	 -2.33600E-004
  1.57283E+003	  4.85359E-004
  1.70390E+003	  1.83114E-004
  1.83498E+003	  2.67455E-004
  1.96605E+003	 -9.94885E-005
  2.09712E+003	 -4.27674E-004
  2.35926E+003	  3.75331E-004
  2.62141E+003	 -1.05623E-004
  2.88355E+003	 -5.74748E-004
  3.14570E+003	 -2.44373E-004
  3.40784E+003	  3.99637E-004
  3.66998E+003	  4.31884E-004
  3.93213E+003	 -4.77011E-004
  4.19427E+003	 -5.61254E-004
  4.71856E+003	 -6.19572E-004
  5.24285E+003	  4.50738E-005
  5.76714E+003	  2.51323E-004
  6.29142E+003	 -5.44355E-004
  6.81571E+003	  3.30155E-004
  7.34000E+003	 -1.52316E-004
  7.86429E+003	 -6.07103E-005

"Count Rate"
       0.07813	     312.11578
       0.15625	     359.41342
       0.23438	     312.26947
       0.31250	     318.89087
       0.39063	     349.74384
       0.46875	     345.70953
       0.54688	     350.43546
       0.62500	     330.02048
       0.70313	     326.26791
       0.78125	     362.67929
       0.85938	     346.54199
       0.93750	     293.28894
       1.01563	     313.47336
       1.09375	     340.68903
       1.17188	     347.29764
       1.25000	     323.33502
       1.32813	     319.15982
       1.40625	     381.78790
       1.48438	     327.44620
       1.56250	     331.36526
       1.64063	     343.10962
       1.71875	     353.43237
       1.79688	     313.51178
       1.87500	     291.44467
       1.95313	     339.90778
       2.03125	     296.96463
       2.10938	     331.00665
       2.18750	     313.87039
       2.26563	     305.11014
       2.34375	     348.09171
       2.42188	     329.76434
       2.50000	     352.84323
       2.57813	     338.10193
       2.65625	     331.76230
       2.73438	     310.89908
       2.81250	     343.95490
       2.89063	     336.38574
       2.96875	     338.14035
       3.04688	     332.81250
       3.12500	     307.83810
       3.20313	     304.72592
       3.28125	     349.67981
       3.35938	     331.90317
       3.43750	     296.05533
       3.51563	     289.97180
       3.59375	     316.11166
       3.67188	     330.19980
       3.75000	     294.67212
       3.82813	     344.04456
       3.90625	     313.62704
       3.98438	     333.76022
       4.06250	     360.86066
       4.14063	     321.60605
       4.21875	     353.40674
       4.29688	     307.42828
       4.37500	     322.10553
       4.45313	     328.06094
       4.53125	     312.71771
       4.60938	     338.06351
       4.68750	     304.66187
       4.76563	     342.03381
       4.84375	     367.17468
       4.92188	     337.24384
       5.00000	     307.50513
       5.07813	     342.03381
       5.15625	     352.38217
       5.23438	     334.28534
       5.31250	     300.05121
       5.39063	     323.09171
       5.46875	     356.22437
       5.54688	     314.51074
       5.62500	     326.94672
       5.70313	     339.90778
       5.78125	     326.79303
       5.85938	     325.94772
       5.93750	     302.95850
       6.01563	     335.97592
       6.09375	     319.72336
       6.17188	     307.79968
       6.25000	     300.87088
       6.32813	     307.71002
       6.40625	     322.52817
       6.48438	     334.15726
       6.56250	     301.39600
       6.64063	     333.00461
       6.71875	     304.18802
       6.79688	     314.52356
       6.87500	     304.59784
       6.95313	     354.20081
       7.03125	     332.72284
       7.10938	     316.41904
       7.18750	     353.34271
       7.26563	     338.48615
       7.34375	     305.66086
       7.42188	     312.46158
       7.50000	     313.97284
       7.57813	     317.63574
       7.65625	     339.10092
       7.73438	     339.44672
       7.81250	     282.67160
       7.89063	     311.53943
       7.96875	     303.57324
       8.04688	     332.91495
       8.12500	     299.00101
       8.20313	     301.33197
       8.28125	     364.08810
       8.35938	     304.00870
       8.43750	     334.65674
       8.51563	     342.31555
       8.59375	     313.46054
       8.67188	     336.65469
       8.75000	     324.12909
       8.82813	     338.49896
       8.90625	     324.48770
       8.98438	     330.49435
       9.06250	     336.30890
       9.14063	     303.03534
       9.21875	     277.10040
       9.29688	     333.56812
       9.37500	     296.45236
       9.45313	     324.48770
       9.53125	     368.35297
       9.60938	     322.05429
       9.68750	     319.30072
       9.76563	     333.63217
       9.84375	     305.00769
       9.92188	     299.42365
      10.00000	     328.84219
      10.07813	     327.86884
      10.15625	     370.96567
      10.23438	     346.32428
      10.31250	     309.93851
      10.39063	     327.16443
      10.46875	     312.71771
      10.54688	     338.25562
      10.62500	     314.52356
      10.70313	     345.79916
      10.78125	     341.08606
      10.85938	     313.07632
      10.93750	     347.55377
      11.01563	     338.51178
      11.09375	     315.58658
      11.17188	     305.14856
      11.25000	     347.68185
      11.32813	     337.78174
      11.40625	     330.43033
      11.48438	     286.15521
      11.56250	     348.59119
      11.64063	     329.08554
      11.71875	     327.06198
      11.79688	     357.82529
      11.87500	     334.50305
      11.95313	     309.42621
      12.03125	     313.15317
      12.10938	     345.24844
      12.18750	     315.58658
      12.26563	     325.16647
      12.34375	     361.89804
      12.42188	     310.82224
      12.50000	     324.97437
      12.57813	     281.78790
      12.65625	     346.32428
      12.73438	     291.04764
      12.81250	     279.90521
      12.89063	     348.47592
      12.96875	     310.61731
      13.04688	     332.33862
      13.12500	     322.20798
      13.20313	     306.08350
      13.28125	     358.82428
      13.35938	     310.64291
      13.43750	     324.28278
      13.51563	     318.85245
      13.59375	     335.80942
      13.67188	     310.37396
      13.75000	     292.52048
      13.82813	     348.20697
      13.90625	     338.89600
      13.98438	     319.96671
      14.06250	     291.98257
      14.14063	     322.16956
      14.21875	     350.46106
      14.29688	     321.70850
      14.37500	     342.12344
      14.45313	     323.18134
      14.53125	     292.13626
      14.60938	     325.80685
      14.68750	     301.74179
      14.76563	     337.62805
      14.84375	     353.18903
      14.92188	     320.94006
      15.00000	     310.05377
      15.07813	     351.24231
      15.15625	     364.53638
      15.23438	     338.51178
      15.31250	     316.25256
      15.39063	     315.02304
      15.46875	     351.11423
      15.54688	     345.79916
      15.62500	     330.45593
      15.70313	     316.67520
      15.78125	     331.44211
      15.85938	     348.36066
      15.93750	     352.74078
      16.01563	     297.61783
      16.09375	     313.10193
      16.17188	     317.54611
      16.25000	     350.15369
      16.32813	     337.66647
      16.40625	     323.11731
      16.48438	     317.78943
      16.56250	     314.61322
      16.64063	     360.10501
      16.71875	     345.70953
      16.79688	     307.92776
      16.87500	     309.92572
      16.95313	     330.71207
      17.03125	     325.96054
      17.10938	     346.42673
      17.18750	     315.97079
      17.26563	     292.62296
      17.34375	     332.05685
      17.42188	     308.31198
      17.50000	     370.59424
      17.57813	     336.23206
      17.65625	     313.10193
      17.73438	     305.91699
      17.81250	     342.46924
      17.89063	     327.70236
      17.96875	     329.00870
      18.04688	     348.83453
      18.12500	     339.28021
      18.20313	     334.96414
      18.28125	     304.57224
      18.35938	     331.00665
      18.43750	     339.84375
      18.51563	     339.62601
      18.59375	     327.95850
      18.67188	     322.84836
      18.75000	     292.73822
      18.82813	     330.75049
      18.90625	     282.83810
      18.98438	     315.11270
      19.06250	     324.52612
      19.14063	     335.73257
      19.21875	     340.81711
      19.29688	     317.54611
      19.37500	     343.81403
      19.45313	     325.38422
      19.53125	     341.72641
      19.60938	     307.74844
      19.68750	     306.21158
      19.76563	     323.93698
      19.84375	     350.90930
      19.92188	     353.90625

Monitor Diode	  81800.92

"Cumulant 1.Order"
FluctuationFreq. [1/ms]	 3.0405E+000
DiffCoefficient [µm²/s]	 4.7776E+000
Hydrodyn. Radius [nm]	 4.3601E+001

"Cumulant 2.Order"
FluctuationFreq. [1/ms]	 3.0418E+000
DiffCoefficient [µm²/s]	 4.7797E+000
Hydrodyn. Radius [nm]	 4.3582E+001
Expansion Parameter µ2	 1.2177E-002

"Cumulant 3.Order"
FluctuationFreq. [1/ms]	 3.0579E+000
DiffCoefficient [µm²/s]	 4.8049E+000
Hydrodyn. Radius [nm]	 4.3353E+001
Expansion Parameter µ2	 3.8415E-001
Expansion Parameter µ3	 2.7448E+000

"StandardDeviation"
  1.25000E-004	  5.36529E-003
  2.50000E-004	  5.36759E-003
  3.75000E-004	  5.36981E-003
  5.00000E-004	  5.37213E-003
  6.25000E-004	  5.37464E-003
  7.50000E-004	  5.37698E-003
  8.75000E-004	  5.37905E-003
  1.00000E-003	  5.38145E-003
  1.12500E-003	  5.37577E-003
  1.25000E-003	  5.37446E-003
  1.37500E-003	  5.37190E-003
  1.50000E-003	  5.37017E-003
  1.62500E-003	  5.37017E-003
  1.75000E-003	  5.36858E-003
  1.87500E-003	  5.36501E-003
  2.00000E-003	  5.03701E-003
  2.25000E-003	  5.03701E-003
  2.50000E-003	  5.03723E-003
  2.75000E-003	  5.03624E-003
  3.00000E-003	  5.03581E-003
  3.25000E-003	  5.03526E-003
  3.50000E-003	  5.03433E-003
  3.75000E-003	  5.03404E-003
  4.00000E-003	  4.86145E-003
  4.50000E-003	  4.85836E-003
  5.00000E-003	  4.85765E-003
  5.50000E-003	  4.85660E-003
  6.00000E-003	  4.85573E-003
  6.50000E-003	  4.85458E-003
  7.00000E-003	  4.85371E-003
  7.50000E-003	  4.85226E-003
  8.00000E-003	  4.76184E-003
  9.00000E-003	  4.75636E-003
  1.00000E-002	  4.75449E-003
  1.10000E-002	  4.75250E-003
  1.20000E-002	  4.75046E-003
  1.30000E-002	  4.74853E-003
  1.40000E-002	  4.74617E-003
  1.50000E-002	  4.74411E-003
  1.60000E-002	  4.69647E-003
  1.80000E-002	  4.68515E-003
  2.00000E-002	  4.68049E-003
  2.20000E-002	  4.67600E-003
  2.40000E-002	  4.67055E-003
  2.60000E-002	  4.66565E-003
  2.80000E-002	  4.66037E-003
  3.00000E-002	  4.65535E-003
  3.20000E-002	  4.62527E-003
  3.60000E-002	  4.60223E-003
  4.00000E-002	  4.58947E-003
  4.40000E-002	  4.57743E-003
  4.80000E-002	  4.56389E-003
  5.20000E-002	  4.55058E-003
  5.60000E-002	  4.53584E-003
  6.00000E-002	  4.52029E-003
  6.40000E-002	  4.48607E-003
  7.20000E-002	  4.43336E-003
  8.00000E-002	  4.40084E-003
  8.80000E-002	  4.36545E-003
  9.60000E-002	  4.33086E-003
  1.04000E-001	  4.29246E-003
  1.12000E-001	  4.25438E-003
  1.20000E-001	  4.21514E-003
  1.28000E-001	  4.17110E-003
  1.44000E-001	  4.07310E-003
  1.60000E-001	  3.99366E-003
  1.76000E-001	  3.91383E-003
  1.92000E-001	  3.83177E-003
  2.08000E-001	  3.75314E-003
  2.24000E-001	  3.67618E-003
  2.40000E-001	  3.60188E-003
  2.56000E-001	  3.54353E-003
  2.88000E-001	  3.39905E-003
  3.20000E-001	  3.27708E-003
  3.52000E-001	  3.16809E-003
  3.84000E-001	  3.07050E-003
  4.16000E-001	  2.98391E-003
  4.48000E-001	  2.90855E-003
  4.80000E-001	  2.84407E-003
  5.12000E-001	  2.75157E-003
  5.76000E-001	  2.66042E-003
  6.40000E-001	  2.59764E-003
  7.04000E-001	  2.55349E-003
  7.68000E-001	  2.51996E-003
  8.32000E-001	  2.49783E-003
  8.96000E-001	  2.48229E-003
  9.60000E-001	  2.46886E-003
  1.02400E+000	  2.40263E-003
  1.15200E+000	  2.35753E-003
  1.28000E+000	  2.35753E-003
  1.40800E+000	  2.35753E-003
  1.53600E+000	  2.35753E-003
  1.66400E+000	  2.35753E-003
  1.79200E+000	  2.35753E-003
  1.92000E+000	  2.35753E-003
  2.01600E+000	  2.21974E-003
  2.27200E+000	  2.21974E-003
  2.52800E+000	  2.21974E-003
  2.78400E+000	  2.21974E-003
  3.04000E+000	  2.21974E-003
  3.29600E+000	  2.21974E-003
  3.55200E+000	  2.21974E-003
  3.80800E+000	  2.21974E-003
  4.06400E+000	  1.95017E-003
  4.57600E+000	  1.95017E-003
  5.08800E+000	  1.95017E-003
  5.60000E+000	  1.95017E-003
  6.11200E+000	  1.95017E-003
  6.62400E+000	  1.95017E-003
  7.13600E+000	  1.95017E-003
  7.64800E+000	  1.95017E-003
  8.16000E+000	  1.63202E-003
  9.18400E+000	  1.63202E-003
  1.02080E+001	  1.63202E-003
  1.12320E+001	  1.63202E-003
  1.22560E+001	  1.63202E-003
  1.32800E+001	  1.63202E-003
  1.43040E+001	  1.63202E-003
  1.53280E+001	  1.63202E-003
  1.63520E+001	  1.26761E-003
  1.84000E+001	  1.26761E-003
  2.04480E+001	  1.26761E-003
  2.24960E+001	  1.26761E-003
  2.45440E+001	  1.26761E-003
  2.65920E+001	  1.26761E-003
  2.86400E+001	  1.26761E-003
  3.06880E+001	  1.26761E-003
  3.27360E+001	  9.42133E-004
  3.68320E+001	  9.42133E-004
  4.09280E+001	  9.42133E-004
  4.50240E+001	  9.42133E-004
  4.91200E+001	  9.42133E-004
  5.32160E+001	  9.42133E-004
  5.73120E+001	  9.42133E-004
  6.14080E+001	  9.42133E-004
  6.55040E+001	  6.82464E-004
  7.36960E+001	  6.82464E-004
  8.18880E+001	  6.82464E-004
  9.00800E+001	  6.82464E-004
  9.82720E+001	  6.82464E-004
  1.06464E+002	  6.82464E-004
  1.14656E+002	  6.82464E-004
  1.22848E+002	  6.82464E-004
  1.31040E+002	  4.88329E-004
  1.47424E+002	  4.88329E-004
  1.63808E+002	  4.88329E-004
  1.80192E+002	  4.88329E-004
  1.96576E+002	  4.88329E-004
  2.12960E+002	  4.88329E-004
  2.29344E+002	  4.88329E-004
  2.45728E+002	  4.88329E-004
  2.62112E+002	  3.47335E-004
  2.94880E+002	  3.47335E-004
  3.27648E+002	  3.47335E-004
  3.60416E+002	  3.47335E-004
  3.93184E+002	  3.47335E-004
  4.25952E+002	  3.47335E-004
  4.58720E+002	  3.47335E-004
  4.91488E+002	  3.47335E-004
  5.24256E+002	  2.46322E-004
  5.89792E+002	  2.46322E-004
  6.55328E+002	  2.46322E-004
  7.20864E+002	  2.46322E-004
  7.86400E+002	  2.46322E-004
  8.51936E+002	  2.46322E-004
  9.17472E+002	  2.46322E-004
  9.83008E+002	  2.46322E-004
  1.04854E+003	  1.74430E-004
  1.17962E+003	  1.74430E-004
  1.31069E+003	  1.74430E-004
  1.44176E+003	  1.74430E-004
  1.57283E+003	  1.74430E-004
  1.70390E+003	  1.74430E-004
  1.83498E+003	  1.74430E-004
  1.96605E+003	  1.74430E-004
  2.09712E+003	  1.23431E-004
  2.35926E+003	  1.23431E-004
  2.62141E+003	  1.23431E-004
  2.88355E+003	  1.23431E-004
  3.14570E+003	  1.23431E-004
  3.40784E+003	  1.23431E-004
  3.66998E+003	  1.23431E-004
  3.93213E+003	  1.23431E-004
  4.19427E+003	  8.73106E-005
  4.71856E+003	  8.73106E-005
  5.24285E+003	  8.73106E-005
  5.76714E+003	  8.73106E-005
  6.29142E+003	  8.73106E-005
  6.81571E+003	  8.73106E-005
  7.34000E+003	  8.73106E-005
  7.86429E+003	  8.73106E-005
