ALV-6000/E-WIN Data
Date :	"11/13/2025"
Time :	"11:14:09 AM"
Samplename : 	"NaCl - 465nm"
SampMemo(0) : 	""
SampMemo(1) : 	""
SampMemo(2) : 	""
SampMemo(3) : 	""
SampMemo(4) : 	""
SampMemo(5) : 	""
SampMemo(6) : 	""
SampMemo(7) : 	""
SampMemo(8) : 	""
SampMemo(9) : 	""
Temperature [K] :	     292.00068
Viscosity [cp]  :	       1.03048
Refractive Index:	       1.33200
Wavelength [nm] :	     632.80000
Angle [°]       :	      74.99900
Duration [s]    :	        20
Runs            :	         1
Mode            :	"SINGLE AUTO CH0 "
MeanCR0 [kHz]   :	    1071.49976
MeanCR1 [kHz]   :	       0.00000

"Correlation"
  1.25000E-004	  1.04195E+000
  2.50000E-004	  1.36458E+000
  3.75000E-004	  1.36387E+000
  5.00000E-004	  1.36278E+000
  6.25000E-004	  1.36112E+000
  7.50000E-004	  1.36105E+000
  8.75000E-004	  1.36212E+000
  1.00000E-003	  1.36101E+000
  1.12500E-003	  1.36127E+000
  1.25000E-003	  1.36037E+000
  1.37500E-003	  1.35839E+000
  1.50000E-003	  1.35870E+000
  1.62500E-003	  1.35946E+000
  1.75000E-003	  1.35748E+000
  1.87500E-003	  1.35885E+000
  2.00000E-003	  1.35959E+000
  2.25000E-003	  1.35950E+000
  2.50000E-003	  1.35855E+000
  2.75000E-003	  1.35879E+000
  3.00000E-003	  1.35922E+000
  3.25000E-003	  1.35834E+000
  3.50000E-003	  1.35945E+000
  3.75000E-003	  1.35927E+000
  4.00000E-003	  1.35909E+000
  4.50000E-003	  1.35823E+000
  5.00000E-003	  1.35855E+000
  5.50000E-003	  1.35799E+000
  6.00000E-003	  1.35725E+000
  6.50000E-003	  1.35717E+000
  7.00000E-003	  1.35776E+000
  7.50000E-003	  1.35747E+000
  8.00000E-003	  1.35664E+000
  9.00000E-003	  1.35647E+000
  1.00000E-002	  1.35642E+000
  1.10000E-002	  1.35547E+000
  1.20000E-002	  1.35534E+000
  1.30000E-002	  1.35503E+000
  1.40000E-002	  1.35421E+000
  1.50000E-002	  1.35344E+000
  1.60000E-002	  1.35313E+000
  1.80000E-002	  1.35265E+000
  2.00000E-002	  1.35127E+000
  2.20000E-002	  1.35059E+000
  2.40000E-002	  1.34982E+000
  2.60000E-002	  1.34909E+000
  2.80000E-002	  1.34826E+000
  3.00000E-002	  1.34695E+000
  3.20000E-002	  1.34620E+000
  3.60000E-002	  1.34458E+000
  4.00000E-002	  1.34259E+000
  4.40000E-002	  1.34109E+000
  4.80000E-002	  1.33925E+000
  5.20000E-002	  1.33753E+000
  5.60000E-002	  1.33567E+000
  6.00000E-002	  1.33390E+000
  6.40000E-002	  1.33205E+000
  7.20000E-002	  1.32852E+000
  8.00000E-002	  1.32521E+000
  8.80000E-002	  1.32157E+000
  9.60000E-002	  1.31820E+000
  1.04000E-001	  1.31465E+000
  1.12000E-001	  1.31110E+000
  1.20000E-001	  1.30783E+000
  1.28000E-001	  1.30435E+000
  1.44000E-001	  1.29758E+000
  1.60000E-001	  1.29083E+000
  1.76000E-001	  1.28397E+000
  1.92000E-001	  1.27728E+000
  2.08000E-001	  1.27063E+000
  2.24000E-001	  1.26396E+000
  2.40000E-001	  1.25737E+000
  2.56000E-001	  1.25069E+000
  2.88000E-001	  1.23773E+000
  3.20000E-001	  1.22503E+000
  3.52000E-001	  1.21223E+000
  3.84000E-001	  1.19970E+000
  4.16000E-001	  1.18753E+000
  4.48000E-001	  1.17520E+000
  4.80000E-001	  1.16310E+000
  5.12000E-001	  1.15116E+000
  5.76000E-001	  1.12804E+000
  6.40000E-001	  1.10533E+000
  7.04000E-001	  1.08309E+000
  7.68000E-001	  1.06132E+000
  8.32000E-001	  1.04013E+000
  8.96000E-001	  1.01932E+000
  9.60000E-001	  9.99210E-001
  1.02400E+000	  9.79899E-001
  1.15200E+000	  9.41880E-001
  1.28000E+000	  9.05452E-001
  1.40800E+000	  8.70456E-001
  1.53600E+000	  8.36767E-001
  1.66400E+000	  8.04592E-001
  1.79200E+000	  7.73724E-001
  1.92000E+000	  7.44082E-001
  2.01600E+000	  7.24002E-001
  2.27200E+000	  6.70367E-001
  2.52800E+000	  6.21575E-001
  2.78400E+000	  5.76559E-001
  3.04000E+000	  5.34934E-001
  3.29600E+000	  4.96753E-001
  3.55200E+000	  4.61062E-001
  3.80800E+000	  4.27573E-001
  4.06400E+000	  3.97260E-001
  4.57600E+000	  3.42216E-001
  5.08800E+000	  2.94685E-001
  5.60000E+000	  2.52796E-001
  6.11200E+000	  2.18259E-001
  6.62400E+000	  1.89046E-001
  7.13600E+000	  1.64615E-001
  7.64800E+000	  1.44957E-001
  8.16000E+000	  1.28616E-001
  9.18400E+000	  1.03450E-001
  1.02080E+001	  8.49176E-002
  1.12320E+001	  7.06019E-002
  1.22560E+001	  5.73368E-002
  1.32800E+001	  4.85872E-002
  1.43040E+001	  4.16131E-002
  1.53280E+001	  3.80415E-002
  1.63520E+001	  3.94173E-002
  1.84000E+001	  3.78047E-002
  2.04480E+001	  2.75403E-002
  2.24960E+001	  1.04350E-002
  2.45440E+001	 -4.51665E-003
  2.65920E+001	 -1.23275E-002
  2.86400E+001	 -1.43975E-002
  3.06880E+001	 -1.07985E-002
  3.27360E+001	 -8.61845E-003
  3.68320E+001	 -5.04321E-003
  4.09280E+001	 -6.83430E-003
  4.50240E+001	 -1.06844E-002
  4.91200E+001	 -1.36487E-002
  5.32160E+001	 -2.86372E-003
  5.73120E+001	  4.86058E-003
  6.14080E+001	  6.78483E-003
  6.55040E+001	  5.30309E-003
  7.36960E+001	  1.86843E-003
  8.18880E+001	 -5.87261E-003
  9.00800E+001	 -1.01910E-002
  9.82720E+001	 -1.38189E-002
  1.06464E+002	 -1.80103E-002
  1.14656E+002	 -1.61705E-002
  1.22848E+002	  4.20615E-003
  1.31040E+002	 -5.32794E-003
  1.47424E+002	 -4.95702E-003
  1.63808E+002	  7.44390E-004
  1.80192E+002	  8.47747E-003
  1.96576E+002	  1.28275E-002
  2.12960E+002	  5.76086E-003
  2.29344E+002	 -5.82443E-003
  2.45728E+002	 -1.42609E-002
  2.62112E+002	 -1.28943E-002
  2.94880E+002	 -2.82112E-003
  3.27648E+002	 -3.83795E-003
  3.60416E+002	 -6.68155E-003
  3.93184E+002	 -1.39443E-002
  4.25952E+002	 -1.38217E-002
  4.58720E+002	 -1.07790E-002
  4.91488E+002	  8.35041E-004
  5.24256E+002	 -1.40586E-003
  5.89792E+002	  4.72581E-003
  6.55328E+002	  7.47521E-003
  7.20864E+002	 -1.09172E-002
  7.86400E+002	 -1.71743E-003
  8.51936E+002	  9.06431E-003
  9.17472E+002	 -3.10154E-003
  9.83008E+002	  4.77403E-003
  1.04854E+003	 -2.02113E-003
  1.17962E+003	 -1.42812E-004
  1.31069E+003	 -6.26476E-004
  1.44176E+003	  2.52007E-003
  1.57283E+003	 -1.00663E-002
  1.70390E+003	  1.80198E-003
  1.83498E+003	 -8.65143E-004
  1.96605E+003	  2.79476E-003
  2.09712E+003	 -1.50233E-003
  2.35926E+003	  1.01773E-003
  2.62141E+003	  2.61505E-004
  2.88355E+003	 -3.69877E-004
  3.14570E+003	 -1.76724E-004
  3.40784E+003	  1.66067E-003
  3.66998E+003	 -5.00207E-003
  3.93213E+003	 -9.86422E-004
  4.19427E+003	  4.35724E-004
  4.71856E+003	 -1.21251E-003
  5.24285E+003	  1.74353E-003
  5.76714E+003	 -2.16494E-003
  6.29142E+003	  2.82485E-003
  6.81571E+003	 -5.66132E-005
  7.34000E+003	  9.99670E-004
  7.86429E+003	  3.91312E-004

"Count Rate"
       0.07813	    1265.30481
       0.15625	     890.97076
       0.23438	     858.86267
       0.31250	    1465.47131
       0.39063	    1433.11987
       0.46875	     807.05682
       0.54688	     902.26691
       0.62500	     912.73053
       0.70313	     787.14136
       0.78125	    1089.33142
       0.85938	    1037.28223
       0.93750	     655.12292
       1.01563	    1161.15515
       1.09375	    1288.29407
       1.17188	    1011.98767
       1.25000	    1210.38672
       1.32813	     774.21875
       1.40625	    1069.31348
       1.48438	    1136.70593
       1.56250	     979.99487
       1.64063	    1489.19055
       1.71875	     790.16394
       1.79688	     699.09064
       1.87500	     878.09937
       1.95313	    1697.55371
       2.03125	     874.84631
       2.10938	    1160.82214
       2.18750	    1070.19714
       2.26563	     800.37140
       2.34375	     810.86066
       2.42188	    1482.28735
       2.50000	     706.91595
       2.57813	     708.69617
       2.65625	    1067.50769
       2.73438	    1139.10083
       2.81250	     717.54608
       2.89063	     954.84119
       2.96875	    1461.03992
       3.04688	    1161.73157
       3.12500	    1304.80273
       3.20313	    1454.32886
       3.28125	    1112.30786
       3.35938	    1400.37134
       3.43750	     596.04248
       3.51563	    1136.28333
       3.59375	    1085.93750
       3.67188	    1160.15625
       3.75000	     589.21619
       3.82813	    1125.62756
       3.90625	     684.72076
       3.98438	    1171.33704
       4.06250	     924.42365
       4.14063	    1321.46509
       4.21875	    1274.03943
       4.29688	     774.06506
       4.37500	    1363.58862
       4.45313	     847.18237
       4.53125	    1081.27563
       4.60938	     907.87653
       4.68750	    1467.67419
       4.76563	    1107.36426
       4.84375	     963.37085
       4.92188	    1155.39185
       5.00000	    1171.15771
       5.07813	    1124.51331
       5.15625	     795.18439
       5.23438	     982.23615
       5.31250	     820.23566
       5.39063	    1365.42004
       5.46875	    1165.54810
       5.54688	     891.72638
       5.62500	     711.91083
       5.70313	     889.06250
       5.78125	    1077.26685
       5.85938	    1922.11829
       5.93750	     591.36780
       6.01563	     970.31250
       6.09375	     805.72485
       6.17188	    1198.34778
       6.25000	     881.83911
       6.32813	     822.89954
       6.40625	    1042.16187
       6.48438	     997.57941
       6.56250	    1017.59729
       6.64063	    1139.02405
       6.71875	    1129.54663
       6.79688	    1058.44006
       6.87500	     862.55121
       6.95313	     991.21411
       7.03125	    1317.82788
       7.10938	     707.87653
       7.18750	    1513.40930
       7.26563	     672.15674
       7.34375	     690.81708
       7.42188	     854.71307
       7.50000	    1570.17163
       7.57813	    1099.02661
       7.65625	    1262.11572
       7.73438	    1117.91748
       7.81250	    1366.91846
       7.89063	    1002.53583
       7.96875	     807.27460
       8.04688	     747.57941
       8.12500	    1041.15002
       8.20313	    1287.92261
       8.28125	     850.89648
       8.35938	    1252.48462
       8.43750	    1409.28528
       8.51563	    1008.45282
       8.59375	    1153.07373
       8.67188	    1049.43640
       8.75000	     904.67468
       8.82813	     993.75000
       8.90625	    1041.13721
       8.98438	    1681.86475
       9.06250	     958.09424
       9.14063	    1104.07275
       9.21875	     835.89905
       9.29688	     834.51587
       9.37500	    1393.54504
       9.45313	     970.10754
       9.53125	    1152.94568
       9.60938	    1147.77148
       9.68750	    1568.69873
       9.76563	     925.35858
       9.84375	    1156.80066
       9.92188	     959.08038
      10.00000	    1002.88165
      10.07813	    1054.93079
      10.15625	     925.43542
      10.23438	    1094.40320
      10.31250	     962.56403
      10.39063	    1268.63464
      10.46875	    1541.34216
      10.54688	    1125.42261
      10.62500	    1789.80530
      10.70313	    1284.09326
      10.78125	    1275.75562
      10.85938	     684.82324
      10.93750	     769.12140
      11.01563	    1095.49182
      11.09375	    1705.05884
      11.17188	    1223.28381
      11.25000	     876.17828
      11.32813	    1441.30371
      11.40625	    1000.32013
      11.48438	     993.40417
      11.56250	     749.43646
      11.64063	    1194.69775
      11.71875	     808.91394
      11.79688	    1177.67676
      11.87500	    1019.80017
      11.95313	     895.37653
      12.03125	    1162.17981
      12.10938	     722.25922
      12.18750	    1016.13727
      12.26563	     878.39392
      12.34375	    1106.81348
      12.42188	    1078.68848
      12.50000	     994.00610
      12.57813	    1332.65881
      12.65625	     708.36322
      12.73438	     979.99487
      12.81250	    1305.68640
      12.89063	    1452.20288
      12.96875	    1331.69824
      13.04688	     930.64801
      13.12500	     931.33960
      13.20313	    1172.27197
      13.28125	     780.68646
      13.35938	     764.85651
      13.43750	    1155.96826
      13.51563	     727.31812
      13.59375	    1123.78333
      13.67188	    1441.62390
      13.75000	    1507.72278
      13.82813	    1073.64233
      13.90625	    1276.66492
      13.98438	    1066.23975
      14.06250	     941.48309
      14.14063	    1288.11475
      14.21875	    1302.07471
      14.29688	     784.34937
      14.37500	    1491.00916
      14.45313	    1001.88263
      14.53125	     717.04657
      14.60938	    1112.28223
      14.68750	     568.67316
      14.76563	    1007.37701
      14.84375	     840.86829
      14.92188	    1107.31299
      15.00000	    1207.67163
      15.07813	     828.77814
      15.15625	     936.07837
      15.23438	     790.40723
      15.31250	    1094.81299
      15.39063	    1255.45593
      15.46875	     799.46210
      15.54688	    1572.50256
      15.62500	    1064.36987
      15.70313	    1049.41089
      15.78125	    1094.31348
      15.85938	    1146.13208
      15.93750	    1749.97437
      16.01563	     897.73309
      16.09375	     822.86115
      16.17188	    1212.61523
      16.25000	    1933.46558
      16.32813	    1066.52148
      16.40625	     870.55579
      16.48438	    1348.94971
      16.56250	     735.52765
      16.64063	     596.65729
      16.71875	    1014.61316
      16.79688	    1378.25305
      16.87500	    1386.47534
      16.95313	    1143.59631
      17.03125	    1247.88672
      17.10938	    1620.92725
      17.18750	     679.64905
      17.26563	    1319.00610
      17.34375	    1211.33447
      17.42188	     814.22894
      17.50000	    1033.76025
      17.57813	     883.37598
      17.65625	     956.22437
      17.73438	     933.11987
      17.81250	    1215.70178
      17.89063	    1474.10339
      17.96875	    1144.44153
      18.04688	    1262.69202
      18.12500	    1308.69617
      18.20313	     969.12140
      18.28125	    1107.49231
      18.35938	    1328.16333
      18.43750	     809.40057
      18.51563	     645.01788
      18.59375	     758.77301
      18.67188	     961.15521
      18.75000	    1111.70593
      18.82813	    1513.30676
      18.90625	     691.18848
      18.98438	     988.58862
      19.06250	    1267.50769
      19.14063	     790.50970
      19.21875	    1031.82629
      19.29688	    1142.00818
      19.37500	    1148.36060
      19.45313	    1392.78943
      19.53125	    1103.02246
      19.60938	    1289.44666
      19.68750	     937.61523
      19.76563	     946.96460
      19.84375	     793.13519
      19.92188	    1144.94104

Monitor Diode	1142144.28

"Cumulant 1.Order"
FluctuationFreq. [1/ms]	 1.4935E-001
DiffCoefficient [µm²/s]	 5.7599E-001
Hydrodyn. Radius [nm]	 3.6017E+002

"Cumulant 2.Order"
FluctuationFreq. [1/ms]	 1.6802E-001
DiffCoefficient [µm²/s]	 6.4800E-001
Hydrodyn. Radius [nm]	 3.2015E+002
Expansion Parameter µ2	 7.6106E-003

"Cumulant 3.Order"
FluctuationFreq. [1/ms]	 1.6491E-001
DiffCoefficient [µm²/s]	 6.3603E-001
Hydrodyn. Radius [nm]	 3.2617E+002
Expansion Parameter µ2	 4.2746E-003
Expansion Parameter µ3	-1.0685E-003

"StandardDeviation"
  1.25000E-004	  1.58552E-002
  2.50000E-004	  1.58557E-002
  3.75000E-004	  1.58561E-002
  5.00000E-004	  1.58566E-002
  6.25000E-004	  1.58571E-002
  7.50000E-004	  1.58575E-002
  8.75000E-004	  1.58580E-002
  1.00000E-003	  1.58585E-002
  1.12500E-003	  1.58575E-002
  1.25000E-003	  1.58573E-002
  1.37500E-003	  1.58572E-002
  1.50000E-003	  1.58570E-002
  1.62500E-003	  1.58565E-002
  1.75000E-003	  1.58565E-002
  1.87500E-003	  1.58562E-002
  2.00000E-003	  1.58468E-002
  2.25000E-003	  1.58471E-002
  2.50000E-003	  1.58471E-002
  2.75000E-003	  1.58471E-002
  3.00000E-003	  1.58470E-002
  3.25000E-003	  1.58472E-002
  3.50000E-003	  1.58471E-002
  3.75000E-003	  1.58471E-002
  4.00000E-003	  1.58424E-002
  4.50000E-003	  1.58421E-002
  5.00000E-003	  1.58421E-002
  5.50000E-003	  1.58422E-002
  6.00000E-003	  1.58423E-002
  6.50000E-003	  1.58423E-002
  7.00000E-003	  1.58423E-002
  7.50000E-003	  1.58424E-002
  8.00000E-003	  1.58398E-002
  9.00000E-003	  1.58392E-002
  1.00000E-002	  1.58392E-002
  1.10000E-002	  1.58393E-002
  1.20000E-002	  1.58393E-002
  1.30000E-002	  1.58394E-002
  1.40000E-002	  1.58395E-002
  1.50000E-002	  1.58396E-002
  1.60000E-002	  1.58383E-002
  1.80000E-002	  1.58369E-002
  2.00000E-002	  1.58371E-002
  2.20000E-002	  1.58372E-002
  2.40000E-002	  1.58373E-002
  2.60000E-002	  1.58374E-002
  2.80000E-002	  1.58375E-002
  3.00000E-002	  1.58377E-002
  3.20000E-002	  1.58363E-002
  3.60000E-002	  1.58336E-002
  4.00000E-002	  1.58339E-002
  4.40000E-002	  1.58341E-002
  4.80000E-002	  1.58342E-002
  5.20000E-002	  1.58343E-002
  5.60000E-002	  1.58344E-002
  6.00000E-002	  1.58345E-002
  6.40000E-002	  1.58290E-002
  7.20000E-002	  1.58237E-002
  8.00000E-002	  1.58240E-002
  8.80000E-002	  1.58243E-002
  9.60000E-002	  1.58244E-002
  1.04000E-001	  1.58245E-002
  1.12000E-001	  1.58244E-002
  1.20000E-001	  1.58242E-002
  1.28000E-001	  1.58200E-002
  1.44000E-001	  1.58092E-002
  1.60000E-001	  1.58090E-002
  1.76000E-001	  1.58085E-002
  1.92000E-001	  1.58041E-002
  2.08000E-001	  1.58035E-002
  2.24000E-001	  1.58024E-002
  2.40000E-001	  1.58010E-002
  2.56000E-001	  1.57950E-002
  2.88000E-001	  1.57747E-002
  3.20000E-001	  1.57687E-002
  3.52000E-001	  1.57664E-002
  3.84000E-001	  1.57615E-002
  4.16000E-001	  1.57579E-002
  4.48000E-001	  1.57502E-002
  4.80000E-001	  1.57430E-002
  5.12000E-001	  1.57236E-002
  5.76000E-001	  1.56874E-002
  6.40000E-001	  1.56695E-002
  7.04000E-001	  1.56485E-002
  7.68000E-001	  1.56274E-002
  8.32000E-001	  1.56044E-002
  8.96000E-001	  1.55806E-002
  9.60000E-001	  1.55551E-002
  1.02400E+000	  1.55544E-002
  1.15200E+000	  1.54193E-002
  1.28000E+000	  1.53625E-002
  1.40800E+000	  1.53020E-002
  1.53600E+000	  1.52380E-002
  1.66400E+000	  1.51813E-002
  1.79200E+000	  1.51059E-002
  1.92000E+000	  1.50188E-002
  2.01600E+000	  1.48773E-002
  2.27200E+000	  1.46654E-002
  2.52800E+000	  1.45113E-002
  2.78400E+000	  1.43623E-002
  3.04000E+000	  1.41963E-002
  3.29600E+000	  1.40261E-002
  3.55200E+000	  1.38666E-002
  3.80800E+000	  1.37271E-002
  4.06400E+000	  1.35346E-002
  4.57600E+000	  1.31666E-002
  5.08800E+000	  1.28813E-002
  5.60000E+000	  1.25874E-002
  6.11200E+000	  1.23110E-002
  6.62400E+000	  1.20262E-002
  7.13600E+000	  1.17615E-002
  7.64800E+000	  1.15115E-002
  8.16000E+000	  1.13077E-002
  9.18400E+000	  1.08512E-002
  1.02080E+001	  1.04696E-002
  1.12320E+001	  8.62527E-003
  1.22560E+001	  8.62527E-003
  1.32800E+001	  8.62527E-003
  1.43040E+001	  8.62527E-003
  1.53280E+001	  8.62527E-003
  1.63520E+001	  8.31708E-003
  1.84000E+001	  8.31708E-003
  2.04480E+001	  8.31708E-003
  2.24960E+001	  8.31708E-003
  2.45440E+001	  8.31708E-003
  2.65920E+001	  8.31708E-003
  2.86400E+001	  8.31708E-003
  3.06880E+001	  8.31708E-003
  3.27360E+001	  7.67297E-003
  3.68320E+001	  7.67297E-003
  4.09280E+001	  7.67297E-003
  4.50240E+001	  7.67297E-003
  4.91200E+001	  7.67297E-003
  5.32160E+001	  7.67297E-003
  5.73120E+001	  7.67297E-003
  6.14080E+001	  7.67297E-003
  6.55040E+001	  7.46638E-003
  7.36960E+001	  7.46638E-003
  8.18880E+001	  7.46638E-003
  9.00800E+001	  7.46638E-003
  9.82720E+001	  7.46638E-003
  1.06464E+002	  7.46638E-003
  1.14656E+002	  7.46638E-003
  1.22848E+002	  7.46638E-003
  1.31040E+002	  6.55727E-003
  1.47424E+002	  6.55727E-003
  1.63808E+002	  6.55727E-003
  1.80192E+002	  6.55727E-003
  1.96576E+002	  6.55727E-003
  2.12960E+002	  6.55727E-003
  2.29344E+002	  6.55727E-003
  2.45728E+002	  6.55727E-003
  2.62112E+002	  5.31456E-003
  2.94880E+002	  5.31456E-003
  3.27648E+002	  5.31456E-003
  3.60416E+002	  5.31456E-003
  3.93184E+002	  5.31456E-003
  4.25952E+002	  5.31456E-003
  4.58720E+002	  5.31456E-003
  4.91488E+002	  5.31456E-003
  5.24256E+002	  4.03749E-003
  5.89792E+002	  4.03749E-003
  6.55328E+002	  4.03749E-003
  7.20864E+002	  4.03749E-003
  7.86400E+002	  4.03749E-003
  8.51936E+002	  4.03749E-003
  9.17472E+002	  4.03749E-003
  9.83008E+002	  4.03749E-003
  1.04854E+003	  2.95417E-003
  1.17962E+003	  2.95417E-003
  1.31069E+003	  2.95417E-003
  1.44176E+003	  2.95417E-003
  1.57283E+003	  2.95417E-003
  1.70390E+003	  2.95417E-003
  1.83498E+003	  2.95417E-003
  1.96605E+003	  2.95417E-003
  2.09712E+003	  2.12400E-003
  2.35926E+003	  2.12400E-003
  2.62141E+003	  2.12400E-003
  2.88355E+003	  2.12400E-003
  3.14570E+003	  2.12400E-003
  3.40784E+003	  2.12400E-003
  3.66998E+003	  2.12400E-003
  3.93213E+003	  2.12400E-003
  4.19427E+003	  1.51430E-003
  4.71856E+003	  1.51430E-003
  5.24285E+003	  1.51430E-003
  5.76714E+003	  1.51430E-003
  6.29142E+003	  1.51430E-003
  6.81571E+003	  1.51430E-003
  7.34000E+003	  1.51430E-003
  7.86429E+003	  1.51430E-003
