ALV-6000/E-WIN Data
Date :	"10/16/2025"
Time :	"11:35:18 AM"
Samplename : 	"NaCl solvent"
SampMemo(0) : 	""
SampMemo(1) : 	""
SampMemo(2) : 	""
SampMemo(3) : 	""
SampMemo(4) : 	""
SampMemo(5) : 	""
SampMemo(6) : 	""
SampMemo(7) : 	""
SampMemo(8) : 	""
SampMemo(9) : 	""
Temperature [K] :	     292.08842
Viscosity [cp]  :	       1.02824
Refractive Index:	       1.33200
Wavelength [nm] :	     632.80000
Angle [°]       :	      49.99900
Duration [s]    :	        60
Runs            :	         1
Mode            :	"SINGLE AUTO CH0 "
MeanCR0 [kHz]   :	     183.36513
MeanCR1 [kHz]   :	       0.00000

"Correlation"
  1.25000E-004	  6.48795E-001
  2.50000E-004	  8.37717E-001
  3.75000E-004	  8.32852E-001
  5.00000E-004	  8.32028E-001
  6.25000E-004	  8.31933E-001
  7.50000E-004	  8.26972E-001
  8.75000E-004	  8.27486E-001
  1.00000E-003	  8.27402E-001
  1.12500E-003	  8.28967E-001
  1.25000E-003	  8.26539E-001
  1.37500E-003	  8.28342E-001
  1.50000E-003	  8.23668E-001
  1.62500E-003	  8.27689E-001
  1.75000E-003	  8.29218E-001
  1.87500E-003	  8.24106E-001
  2.00000E-003	  8.25533E-001
  2.25000E-003	  8.27307E-001
  2.50000E-003	  8.28493E-001
  2.75000E-003	  8.24424E-001
  3.00000E-003	  8.28284E-001
  3.25000E-003	  8.26307E-001
  3.50000E-003	  8.27647E-001
  3.75000E-003	  8.27734E-001
  4.00000E-003	  8.27260E-001
  4.50000E-003	  8.27929E-001
  5.00000E-003	  8.25633E-001
  5.50000E-003	  8.26655E-001
  6.00000E-003	  8.24214E-001
  6.50000E-003	  8.23395E-001
  7.00000E-003	  8.25420E-001
  7.50000E-003	  8.26428E-001
  8.00000E-003	  8.25996E-001
  9.00000E-003	  8.25882E-001
  1.00000E-002	  8.25496E-001
  1.10000E-002	  8.26165E-001
  1.20000E-002	  8.26414E-001
  1.30000E-002	  8.25411E-001
  1.40000E-002	  8.25955E-001
  1.50000E-002	  8.25276E-001
  1.60000E-002	  8.24837E-001
  1.80000E-002	  8.24404E-001
  2.00000E-002	  8.24281E-001
  2.20000E-002	  8.24482E-001
  2.40000E-002	  8.23943E-001
  2.60000E-002	  8.22534E-001
  2.80000E-002	  8.22621E-001
  3.00000E-002	  8.22725E-001
  3.20000E-002	  8.22879E-001
  3.60000E-002	  8.22778E-001
  4.00000E-002	  8.21355E-001
  4.40000E-002	  8.21279E-001
  4.80000E-002	  8.21039E-001
  5.20000E-002	  8.19968E-001
  5.60000E-002	  8.20128E-001
  6.00000E-002	  8.19690E-001
  6.40000E-002	  8.18794E-001
  7.20000E-002	  8.17240E-001
  8.00000E-002	  8.16586E-001
  8.80000E-002	  8.16280E-001
  9.60000E-002	  8.15083E-001
  1.04000E-001	  8.13741E-001
  1.12000E-001	  8.12948E-001
  1.20000E-001	  8.11913E-001
  1.28000E-001	  8.10634E-001
  1.44000E-001	  8.08505E-001
  1.60000E-001	  8.06960E-001
  1.76000E-001	  8.04620E-001
  1.92000E-001	  8.02640E-001
  2.08000E-001	  8.00666E-001
  2.24000E-001	  7.98838E-001
  2.40000E-001	  7.96583E-001
  2.56000E-001	  7.94676E-001
  2.88000E-001	  7.91109E-001
  3.20000E-001	  7.87173E-001
  3.52000E-001	  7.83131E-001
  3.84000E-001	  7.79182E-001
  4.16000E-001	  7.75746E-001
  4.48000E-001	  7.71883E-001
  4.80000E-001	  7.68028E-001
  5.12000E-001	  7.64220E-001
  5.76000E-001	  7.57133E-001
  6.40000E-001	  7.49828E-001
  7.04000E-001	  7.42999E-001
  7.68000E-001	  7.36146E-001
  8.32000E-001	  7.29048E-001
  8.96000E-001	  7.22314E-001
  9.60000E-001	  7.15537E-001
  1.02400E+000	  7.08841E-001
  1.15200E+000	  6.95909E-001
  1.28000E+000	  6.83382E-001
  1.40800E+000	  6.71360E-001
  1.53600E+000	  6.59845E-001
  1.66400E+000	  6.48344E-001
  1.79200E+000	  6.37123E-001
  1.92000E+000	  6.26107E-001
  2.01600E+000	  6.17792E-001
  2.27200E+000	  5.97088E-001
  2.52800E+000	  5.77611E-001
  2.78400E+000	  5.58728E-001
  3.04000E+000	  5.40414E-001
  3.29600E+000	  5.22915E-001
  3.55200E+000	  5.05512E-001
  3.80800E+000	  4.89061E-001
  4.06400E+000	  4.73135E-001
  4.57600E+000	  4.43201E-001
  5.08800E+000	  4.16016E-001
  5.60000E+000	  3.91767E-001
  6.11200E+000	  3.69217E-001
  6.62400E+000	  3.48641E-001
  7.13600E+000	  3.29090E-001
  7.64800E+000	  3.10545E-001
  8.16000E+000	  2.94108E-001
  9.18400E+000	  2.63638E-001
  1.02080E+001	  2.36042E-001
  1.12320E+001	  2.12307E-001
  1.22560E+001	  1.91943E-001
  1.32800E+001	  1.74019E-001
  1.43040E+001	  1.57889E-001
  1.53280E+001	  1.43643E-001
  1.63520E+001	  1.31192E-001
  1.84000E+001	  1.09864E-001
  2.04480E+001	  9.52427E-002
  2.24960E+001	  8.32128E-002
  2.45440E+001	  7.31430E-002
  2.65920E+001	  6.50303E-002
  2.86400E+001	  6.08686E-002
  3.06880E+001	  5.59189E-002
  3.27360E+001	  4.98463E-002
  3.68320E+001	  3.96865E-002
  4.09280E+001	  3.84767E-002
  4.50240E+001	  3.69821E-002
  4.91200E+001	  3.47493E-002
  5.32160E+001	  3.54252E-002
  5.73120E+001	  3.59541E-002
  6.14080E+001	  2.94063E-002
  6.55040E+001	  2.17025E-002
  7.36960E+001	  1.15274E-002
  8.18880E+001	  2.56083E-003
  9.00800E+001	 -2.45114E-003
  9.82720E+001	  3.38335E-003
  1.06464E+002	  9.11583E-003
  1.14656E+002	  7.18774E-003
  1.22848E+002	  2.84897E-003
  1.31040E+002	  4.19473E-003
  1.47424E+002	  1.76985E-002
  1.63808E+002	  8.68427E-003
  1.80192E+002	  7.00522E-004
  1.96576E+002	 -7.29270E-005
  2.12960E+002	  1.49432E-002
  2.29344E+002	  1.15939E-002
  2.45728E+002	  1.04085E-002
  2.62112E+002	  7.49494E-003
  2.94880E+002	  1.39761E-002
  3.27648E+002	  1.54150E-002
  3.60416E+002	  2.35698E-002
  3.93184E+002	  1.77105E-002
  4.25952E+002	  5.71446E-003
  4.58720E+002	 -1.27172E-003
  4.91488E+002	 -6.08381E-003
  5.24256E+002	 -4.76875E-003
  5.89792E+002	  2.97720E-003
  6.55328E+002	 -3.88360E-003
  7.20864E+002	  4.32100E-003
  7.86400E+002	  2.00481E-002
  8.51936E+002	  1.20415E-002
  9.17472E+002	  3.06009E-003
  9.83008E+002	  5.89440E-003
  1.04854E+003	  5.77754E-003
  1.17962E+003	  2.19731E-003
  1.31069E+003	  9.39068E-003
  1.44176E+003	  7.52213E-003
  1.57283E+003	  6.80313E-003
  1.70390E+003	  7.71285E-003
  1.83498E+003	 -3.37329E-003
  1.96605E+003	  1.08326E-002
  2.09712E+003	  6.74339E-003
  2.35926E+003	  1.31274E-003
  2.62141E+003	  2.90129E-003
  2.88355E+003	  8.76788E-003
  3.14570E+003	  8.77442E-003
  3.40784E+003	  4.20836E-003
  3.66998E+003	  8.60923E-003
  3.93213E+003	  3.49896E-003
  4.19427E+003	  2.40838E-003
  4.71856E+003	  5.01500E-003
  5.24285E+003	  3.73563E-003
  5.76714E+003	  1.86214E-003
  6.29142E+003	  3.19248E-003
  6.81571E+003	 -1.08916E-004
  7.34000E+003	 -1.51550E-003
  7.86429E+003	  1.08938E-003
  8.38858E+003	 -6.68179E-004
  9.43715E+003	  5.08369E-004
  1.04857E+004	 -2.27253E-003
  1.15343E+004	 -2.56674E-003
  1.25829E+004	  8.34673E-004
  1.36315E+004	 -3.37429E-003
  1.46800E+004	 -5.63967E-003
  1.57286E+004	 -6.53735E-003

"Count Rate"
       0.23438	     223.24113
       0.46875	     266.92709
       0.70313	     160.60452
       0.93750	     380.06320
       1.17188	     299.76096
       1.40625	     243.58778
       1.64063	     340.41156
       1.87500	     188.55875
       2.10938	     274.15900
       2.34375	     153.24881
       2.57813	     198.68085
       2.81250	     178.53058
       3.04688	     207.37706
       3.28125	     222.28911
       3.51563	     171.81525
       3.75000	     122.69468
       3.98438	     212.30789
       4.21875	     364.72849
       4.45313	     204.29475
       4.68750	     273.94980
       4.92188	     253.92334
       5.15625	     209.98549
       5.39063	     160.23737
       5.62500	     160.45082
       5.85938	     342.46075
       6.09375	     143.04987
       6.32813	     280.36630
       6.56250	     159.56712
       6.79688	     100.40557
       7.03125	     195.06490
       7.26563	     163.56729
       7.50000	     195.53023
       7.73438	     230.68649
       7.96875	     230.45169
       8.20313	     130.28091
       8.43750	     278.44946
       8.67188	     140.83420
       8.90625	     143.21637
       9.14063	     204.29048
       9.37500	     183.91821
       9.60938	     245.95288
       9.84375	     163.87039
      10.07813	     223.07036
      10.31250	     279.27768
      10.54688	     191.85878
      10.78125	     141.91002
      11.01563	     216.36784
      11.25000	     146.54201
      11.48438	     253.18478
      11.71875	     106.21585
      11.95313	     162.67505
      12.18750	     174.33829
      12.42188	     214.18204
      12.65625	     168.44263
      12.89063	     188.68256
      13.12500	     188.68256
      13.35938	     178.16769
      13.59375	     158.64499
      13.82813	     175.29031
      14.06250	     233.90968
      14.29688	     172.65625
      14.53125	     157.82959
      14.76563	     225.11101
      15.00000	     188.00377
      15.23438	     256.48480
      15.46875	     230.19554
      15.70313	     159.74216
      15.93750	     210.76674
      16.17188	     177.38644
      16.40625	     239.36134
      16.64063	     114.42965
      16.87500	     212.67505
      17.10938	     148.89430
      17.34375	     151.78023
      17.57813	     157.25752
      17.81250	     158.41446
      18.04688	      99.55602
      18.28125	     150.58487
      18.51563	     195.12039
      18.75000	     141.69229
      18.98438	     142.08078
      19.21875	     111.97917
      19.45313	     165.28775
      19.68750	     188.65268
      19.92188	     203.76111
      20.15625	     192.78519
      20.39063	     133.66206
      20.62500	     148.82173
      20.85938	     166.86305
      21.09375	     216.84598
      21.32813	     148.91565
      21.56250	     137.82019
      21.79688	     143.57497
      22.03125	     171.02972
      22.26563	     182.39841
      22.50000	     162.51282
      22.73438	     167.14055
      22.96875	     137.92265
      23.20313	     250.50377
      23.43750	     158.78587
      23.67188	     129.40147
      23.90625	     150.84102
      24.14063	     139.48943
      24.37500	     201.98088
      24.60938	     199.18460
      24.84375	     251.22098
      25.07813	     179.07703
      25.31250	     224.15472
      25.54688	     177.19861
      25.78125	     149.64140
      26.01563	     134.88303
      26.25000	     132.67163
      26.48438	     118.91650
      26.71875	     183.64499
      26.95313	     166.81609
      27.18750	     117.89191
      27.42188	     186.24062
      27.65625	     164.89499
      27.89063	     261.09546
      28.12500	     117.14054
      28.35938	     234.87450
      28.59375	     132.65028
      28.82813	     139.83522
      29.06250	     145.11186
      29.29688	     182.92778
      29.53125	     152.45049
      29.76563	      98.67657
      30.00000	     163.33249
      30.23438	     112.17982
      30.46875	     132.16360
      30.70313	     111.41565
      30.93750	     201.62654
      31.17188	     122.48976
      31.40625	     144.85999
      31.64063	     146.13217
      31.87500	     154.53381
      32.10938	     149.80362
      32.34375	     222.34035
      32.57813	     142.30704
      32.81250	     161.52238
      33.04688	     115.81712
      33.28125	     148.67657
      33.51563	     213.01657
      33.75000	     178.40250
      33.98438	     178.51350
      34.21875	     149.06081
      34.45313	     188.38799
      34.68750	     132.56490
      34.92188	     113.68256
      35.15625	     167.99010
      35.39063	     147.69467
      35.62500	     163.49898
      35.85938	     183.74318
      36.09375	     214.60896
      36.32813	     160.89482
      36.56250	     131.36526
      36.79688	     165.95374
      37.03125	     259.03348
      37.26563	     129.29474
      37.50000	     243.43410
      37.73438	     205.71637
      37.96875	     125.35007
      38.20313	     284.41342
      38.43750	     187.94400
      38.67188	     197.18666
      38.90625	     213.89174
      39.14063	     148.37773
      39.37500	     153.35555
      39.60938	     158.76025
      39.84375	     205.48157
      40.07813	     190.58659
      40.31250	     171.80670
      40.54688	     165.21944
      40.78125	     157.59904
      41.01563	     252.41634
      41.25000	     173.57413
      41.48438	     184.60555
      41.71875	     153.33420
      41.95313	     194.20680
      42.18750	     150.19212
      42.42188	     153.10367
      42.65625	     178.21466
      42.89063	     161.84256
      43.12500	     161.74864
      43.35938	     189.51503
      43.59375	     200.54646
      43.82813	     143.41275
      44.06250	     193.66463
      44.29688	     232.20630
      44.53125	     137.50000
      44.76563	     204.73447
      45.00000	     166.66667
      45.23438	     206.46773
      45.46875	     216.77768
      45.70313	     255.61818
      45.93750	     153.36407
      46.17188	     141.16292
      46.40625	     162.91838
      46.64063	     177.02785
      46.87500	     117.86203
      47.10938	     184.28535
      47.34375	     258.63644
      47.57813	     170.22285
      47.81250	     208.15831
      48.04688	     168.88661
      48.28125	     177.41206
      48.51563	     145.94861
      48.75000	     142.53757
      48.98438	     135.60025
      49.21875	     137.52989
      49.45313	     165.13832
      49.68750	     250.52084
      49.92188	     205.93410
      50.15625	     300.32019
      50.39063	     128.16769
      50.62500	     132.03125
      50.85938	     189.52357
      51.09375	     268.10965
      51.32813	     176.19110
      51.56250	     135.57890
      51.79688	     126.82292
      52.03125	     208.91821
      52.26563	     200.83249
      52.50000	     125.62756
      52.73438	     181.01947
      52.96875	     312.10300
      53.20313	     197.07993
      53.43750	     158.36749
      53.67188	     169.21107
      53.90625	     286.53519
      54.14063	     206.01947
      54.37500	     220.09479
      54.60938	     132.12944
      54.84375	     155.96825
      55.07813	     136.01009
      55.31250	     272.95511
      55.54688	     200.37996
      55.78125	     286.88953
      56.01563	     174.88901
      56.25000	     197.96791
      56.48438	     160.68562
      56.71875	     175.23907
      56.95313	     183.24796
      57.18750	     230.66940
      57.42188	     229.38867
      57.65625	     133.46568
      57.89063	     195.00940
      58.12500	     176.51982
      58.35938	     199.23584
      58.59375	     129.49966
      58.82813	     160.72404
      59.06250	     223.63390
      59.29688	     300.77274
      59.53125	     145.83762
      59.76563	     151.98515

Monitor Diode	1131131.95

"Cumulant 1.Order"
FluctuationFreq. [1/ms]	 6.0415E-002
DiffCoefficient [µm²/s]	 4.8347E-001
Hydrodyn. Radius [nm]	 4.3016E+002

"Cumulant 2.Order"
FluctuationFreq. [1/ms]	 7.2100E-002
DiffCoefficient [µm²/s]	 5.7698E-001
Hydrodyn. Radius [nm]	 3.6044E+002
Expansion Parameter µ2	 1.9628E-003

"Cumulant 3.Order"
FluctuationFreq. [1/ms]	 7.4786E-002
DiffCoefficient [µm²/s]	 5.9847E-001
Hydrodyn. Radius [nm]	 3.4750E+002
Expansion Parameter µ2	 3.1356E-003
Expansion Parameter µ3	 1.5345E-004

"StandardDeviation"
  1.25000E-004	  1.84093E-002
  2.50000E-004	  1.84095E-002
  3.75000E-004	  1.84097E-002
  5.00000E-004	  1.84099E-002
  6.25000E-004	  1.84102E-002
  7.50000E-004	  1.84104E-002
  8.75000E-004	  1.84106E-002
  1.00000E-003	  1.84109E-002
  1.12500E-003	  1.84104E-002
  1.25000E-003	  1.84102E-002
  1.37500E-003	  1.84101E-002
  1.50000E-003	  1.84101E-002
  1.62500E-003	  1.84098E-002
  1.75000E-003	  1.84097E-002
  1.87500E-003	  1.84097E-002
  2.00000E-003	  1.83109E-002
  2.25000E-003	  1.83108E-002
  2.50000E-003	  1.83107E-002
  2.75000E-003	  1.83110E-002
  3.00000E-003	  1.83107E-002
  3.25000E-003	  1.83109E-002
  3.50000E-003	  1.83108E-002
  3.75000E-003	  1.83108E-002
  4.00000E-003	  1.82612E-002
  4.50000E-003	  1.82609E-002
  5.00000E-003	  1.82612E-002
  5.50000E-003	  1.82611E-002
  6.00000E-003	  1.82613E-002
  6.50000E-003	  1.82615E-002
  7.00000E-003	  1.82612E-002
  7.50000E-003	  1.82611E-002
  8.00000E-003	  1.82365E-002
  9.00000E-003	  1.82361E-002
  1.00000E-002	  1.82362E-002
  1.10000E-002	  1.82361E-002
  1.20000E-002	  1.82361E-002
  1.30000E-002	  1.82362E-002
  1.40000E-002	  1.82362E-002
  1.50000E-002	  1.82362E-002
  1.60000E-002	  1.82233E-002
  1.80000E-002	  1.82226E-002
  2.00000E-002	  1.82227E-002
  2.20000E-002	  1.82226E-002
  2.40000E-002	  1.82227E-002
  2.60000E-002	  1.82229E-002
  2.80000E-002	  1.82229E-002
  3.00000E-002	  1.82229E-002
  3.20000E-002	  1.82161E-002
  3.60000E-002	  1.82146E-002
  4.00000E-002	  1.82149E-002
  4.40000E-002	  1.82149E-002
  4.80000E-002	  1.82148E-002
  5.20000E-002	  1.82150E-002
  5.60000E-002	  1.82149E-002
  6.00000E-002	  1.82150E-002
  6.40000E-002	  1.82111E-002
  7.20000E-002	  1.82083E-002
  8.00000E-002	  1.82083E-002
  8.80000E-002	  1.82082E-002
  9.60000E-002	  1.82083E-002
  1.04000E-001	  1.82085E-002
  1.12000E-001	  1.82084E-002
  1.20000E-001	  1.82084E-002
  1.28000E-001	  1.82057E-002
  1.44000E-001	  1.81999E-002
  1.60000E-001	  1.81998E-002
  1.76000E-001	  1.82000E-002
  1.92000E-001	  1.81999E-002
  2.08000E-001	  1.81999E-002
  2.24000E-001	  1.81997E-002
  2.40000E-001	  1.81996E-002
  2.56000E-001	  1.81955E-002
  2.88000E-001	  1.81843E-002
  3.20000E-001	  1.81847E-002
  3.52000E-001	  1.81850E-002
  3.84000E-001	  1.81855E-002
  4.16000E-001	  1.81850E-002
  4.48000E-001	  1.81851E-002
  4.80000E-001	  1.81846E-002
  5.12000E-001	  1.81769E-002
  5.76000E-001	  1.81553E-002
  6.40000E-001	  1.81558E-002
  7.04000E-001	  1.81554E-002
  7.68000E-001	  1.81540E-002
  8.32000E-001	  1.81539E-002
  8.96000E-001	  1.81523E-002
  9.60000E-001	  1.81508E-002
  1.02400E+000	  1.81594E-002
  1.15200E+000	  1.81154E-002
  1.28000E+000	  1.81107E-002
  1.40800E+000	  1.81044E-002
  1.53600E+000	  1.80951E-002
  1.66400E+000	  1.80874E-002
  1.79200E+000	  1.80778E-002
  1.92000E+000	  1.80578E-002
  2.01600E+000	  1.79773E-002
  2.27200E+000	  1.79375E-002
  2.52800E+000	  1.79072E-002
  2.78400E+000	  1.78749E-002
  3.04000E+000	  1.78387E-002
  3.29600E+000	  1.77949E-002
  3.55200E+000	  1.77531E-002
  3.80800E+000	  1.77233E-002
  4.06400E+000	  1.76869E-002
  4.57600E+000	  1.74557E-002
  5.08800E+000	  1.73472E-002
  5.60000E+000	  1.72356E-002
  6.11200E+000	  1.71092E-002
  6.62400E+000	  1.69900E-002
  7.13600E+000	  1.68498E-002
  7.64800E+000	  1.67168E-002
  8.16000E+000	  1.65250E-002
  9.18400E+000	  1.61740E-002
  1.02080E+001	  1.59084E-002
  1.12320E+001	  1.56336E-002
  1.22560E+001	  1.53692E-002
  1.32800E+001	  1.51142E-002
  1.43040E+001	  1.48727E-002
  1.53280E+001	  1.46378E-002
  1.63520E+001	  1.44372E-002
  1.84000E+001	  1.39841E-002
  2.04480E+001	  1.36439E-002
  2.24960E+001	  1.33557E-002
  2.45440E+001	  1.30933E-002
  2.65920E+001	  1.28469E-002
  2.86400E+001	  1.26426E-002
  3.06880E+001	  1.24010E-002
  3.27360E+001	  1.20512E-002
  3.68320E+001	  1.15119E-002
  4.09280E+001	  1.11635E-002
  4.50240E+001	  9.38935E-003
  4.91200E+001	  9.38935E-003
  5.32160E+001	  9.38935E-003
  5.73120E+001	  9.38935E-003
  6.14080E+001	  9.38935E-003
  6.55040E+001	  9.10369E-003
  7.36960E+001	  9.10369E-003
  8.18880E+001	  9.10369E-003
  9.00800E+001	  9.10369E-003
  9.82720E+001	  9.10369E-003
  1.06464E+002	  9.10369E-003
  1.14656E+002	  9.10369E-003
  1.22848E+002	  9.10369E-003
  1.31040E+002	  8.37186E-003
  1.47424E+002	  8.37186E-003
  1.63808E+002	  8.37186E-003
  1.80192E+002	  8.37186E-003
  1.96576E+002	  8.37186E-003
  2.12960E+002	  8.37186E-003
  2.29344E+002	  8.37186E-003
  2.45728E+002	  8.37186E-003
  2.62112E+002	  7.61772E-003
  2.94880E+002	  7.61772E-003
  3.27648E+002	  7.61772E-003
  3.60416E+002	  7.61772E-003
  3.93184E+002	  7.61772E-003
  4.25952E+002	  7.61772E-003
  4.58720E+002	  7.61772E-003
  4.91488E+002	  7.61772E-003
  5.24256E+002	  6.54758E-003
  5.89792E+002	  6.54758E-003
  6.55328E+002	  6.54758E-003
  7.20864E+002	  6.54758E-003
  7.86400E+002	  6.54758E-003
  8.51936E+002	  6.54758E-003
  9.17472E+002	  6.54758E-003
  9.83008E+002	  6.54758E-003
  1.04854E+003	  5.26282E-003
  1.17962E+003	  5.26282E-003
  1.31069E+003	  5.26282E-003
  1.44176E+003	  5.26282E-003
  1.57283E+003	  5.26282E-003
  1.70390E+003	  5.26282E-003
  1.83498E+003	  5.26282E-003
  1.96605E+003	  5.26282E-003
  2.09712E+003	  3.97712E-003
  2.35926E+003	  3.97712E-003
  2.62141E+003	  3.97712E-003
  2.88355E+003	  3.97712E-003
  3.14570E+003	  3.97712E-003
  3.40784E+003	  3.97712E-003
  3.66998E+003	  3.97712E-003
  3.93213E+003	  3.97712E-003
  4.19427E+003	  2.90314E-003
  4.71856E+003	  2.90314E-003
  5.24285E+003	  2.90314E-003
  5.76714E+003	  2.90314E-003
  6.29142E+003	  2.90314E-003
  6.81571E+003	  2.90314E-003
  7.34000E+003	  2.90314E-003
  7.86429E+003	  2.90314E-003
  8.38858E+003	  2.08497E-003
  9.43715E+003	  2.08497E-003
  1.04857E+004	  2.08497E-003
  1.15343E+004	  2.08497E-003
  1.25829E+004	  2.08497E-003
  1.36315E+004	  2.08497E-003
  1.46800E+004	  2.08497E-003
  1.57286E+004	  2.08497E-003
